File: CSVs/190606_AuNP_PDMS_1/00_AuPDMS_00min.csv
Created as New Dataset,Sample 156 By irlear Date Wednesday, June 05 2019
cm-1,%T
4000.00,79.34
3987.50,79.89
3975.00,80.43
3962.50,80.92
3950.00,81.21
3937.50,81.44
3925.00,81.55
3912.50,81.37
3900.00,80.93
3887.50,80.60
3875.00,80.29
3862.50,79.51
3850.00,77.30
3837.50,74.03
3825.00,72.23
3812.50,71.00
3800.00,68.74
3787.50,64.90
3775.00,60.08
3762.50,57.65
3750.00,58.31
3737.50,60.62
3725.00,57.36
3712.50,52.06
3700.00,48.09
3687.50,50.76
3675.00,51.32
3662.50,48.01
3650.00,43.54
3637.50,42.80
3625.00,44.53
3612.50,44.27
3600.00,42.88
3587.50,41.79
3575.00,42.79
3562.50,43.83
3550.00,44.09
3537.50,43.82
3525.00,43.54
3512.50,43.54
3500.00,43.78
3487.50,44.06
3475.00,44.46
3462.50,44.94
3450.00,45.55
3437.50,46.31
3425.00,46.92
3412.50,47.66
3400.00,48.43
3387.50,49.23
3375.00,50.09
3362.50,50.90
3350.00,51.83
3337.50,52.88
3325.00,53.95
3312.50,55.08
3300.00,56.12
3287.50,56.99
3275.00,57.69
3262.50,58.18
3250.00,58.55
3237.50,58.78
3225.00,58.90
3212.50,59.07
3200.00,58.96
3187.50,58.31
3175.00,58.73
3162.50,58.11
3150.00,56.48
3137.50,53.74
3125.00,50.00
3112.50,47.45
3100.00,47.09
3087.50,46.89
3075.00,45.30
3062.50,40.28
3050.00,35.75
3037.50,41.73
3025.00,39.74
3012.50,33.40
3000.00,24.11
2987.50,6.86
2975.00,-0.00
2962.50,0.05
2950.00,0.06
2937.50,6.41
2925.00,14.57
2912.50,6.69
2900.00,4.14
2887.50,20.93
2875.00,34.04
2862.50,42.02
2850.00,44.65
2837.50,46.18
2825.00,48.45
2812.50,47.25
2800.00,48.00
2787.50,54.49
2775.00,67.12
2762.50,73.79
2750.00,76.95
2737.50,78.87
2725.00,79.91
2712.50,79.87
2700.00,80.20
2687.50,80.30
2675.00,77.95
2662.50,75.20
2650.00,78.33
2637.50,82.43
2625.00,84.25
2612.50,85.14
2600.00,85.62
2587.50,85.87
2575.00,86.06
2562.50,86.14
2550.00,86.09
2537.50,85.90
2525.00,85.16
2512.50,83.16
2500.00,74.94
2487.50,81.54
2475.00,84.94
2462.50,85.80
2450.00,86.16
2437.50,86.29
2425.00,86.32
2412.50,86.28
2400.00,86.21
2387.50,86.10
2375.00,85.86
2362.50,85.68
2350.00,85.39
2337.50,85.10
2325.00,84.80
2312.50,84.29
2300.00,83.61
2287.50,82.60
2275.00,81.41
2262.50,80.88
2250.00,80.01
2237.50,78.36
2225.00,75.33
2212.50,70.40
2200.00,61.16
2187.50,44.28
2175.00,23.81
2162.50,15.72
2150.00,23.91
2137.50,44.66
2125.00,61.02
2112.50,67.93
2100.00,70.79
2087.50,71.82
2075.00,71.25
2062.50,69.30
2050.00,67.70
2037.50,73.93
2025.00,74.96
2012.50,71.37
2000.00,68.49
1987.50,67.89
1975.00,62.36
1962.50,54.20
1950.00,47.56
1937.50,49.07
1925.00,56.97
1912.50,61.00
1900.00,64.86
1887.50,64.94
1875.00,64.47
1862.50,64.28
1850.00,63.91
1837.50,64.32
1825.00,63.04
1812.50,60.52
1800.00,57.03
1787.50,54.05
1775.00,52.87
1762.50,53.23
1750.00,53.72
1737.50,52.95
1725.00,51.20
1712.50,50.35
1700.00,49.57
1687.50,47.74
1675.00,45.81
1662.50,42.90
1650.00,40.13
1637.50,38.11
1625.00,35.93
1612.50,34.09
1600.00,30.75
1587.50,36.16
1575.00,39.99
1562.50,42.16
1550.00,42.80
1537.50,42.36
1525.00,41.96
1512.50,42.03
1500.00,41.74
1487.50,37.40
1475.00,34.58
1462.50,24.95
1450.00,12.06
1437.50,14.03
1425.00,9.33
1412.50,0.88
1400.00,2.33
1387.50,15.31
1375.00,22.74
1362.50,26.35
1350.00,27.19
1337.50,26.66
1325.00,22.87
1312.50,15.95
1300.00,8.93
1287.50,2.54
1275.00,0.02
1262.50,0.00
1250.00,0.00
1237.50,0.39
1225.00,0.46
1212.50,0.04
1200.00,0.00
1187.50,0.01
1175.00,0.01
1162.50,0.01
1150.00,0.00
1137.50,0.01
1125.00,0.00
1112.50,0.01
1100.00,0.01
1087.50,0.00
1075.00,0.00
1062.50,0.01
1050.00,0.01
1037.50,0.00
1025.00,0.00
1012.50,0.00
1000.00,0.00
987.50,0.04
975.00,0.82
962.50,2.21
950.00,4.37
937.50,5.58
925.00,2.26
912.50,0.27
900.00,0.29
887.50,0.00
875.00,0.01
862.50,0.01
850.00,0.00
837.50,0.01
825.00,0.01
812.50,0.00
800.00,0.00
787.50,0.00
775.00,0.01
762.50,0.00
750.00,0.12
737.50,1.88
725.00,2.54
712.50,0.72
700.00,0.11
687.50,0.12
675.00,0.93
662.50,0.79
650.00,10.38
637.50,8.74
625.00,7.38
612.50,7.57
600.00,2.37
587.50,3.10
575.00,0.98
562.50,0.57
550.00,0.41
537.50,0.25
525.00,0.17
512.50,0.11
500.00,0.07
487.50,0.04
475.00,0.05
462.50,0.12
450.00,0.12
437.50,0.15
425.00,0.33
412.50,0.17
400.00,1.18