File: CSVs/190606_AuNP_PDMS_1/02_AuPDMS_02min.csv
Created as New Dataset,Sample 159 By irlear Date Thursday, June 06 2019
cm-1,%T
4000.00,79.21
3987.50,79.76
3975.00,80.29
3962.50,80.75
3950.00,81.04
3937.50,81.26
3925.00,81.35
3912.50,81.19
3900.00,80.76
3887.50,80.40
3875.00,80.09
3862.50,79.38
3850.00,77.24
3837.50,73.98
3825.00,72.24
3812.50,70.98
3800.00,68.76
3787.50,64.94
3775.00,60.20
3762.50,57.79
3750.00,58.53
3737.50,60.67
3725.00,57.37
3712.50,52.10
3700.00,48.05
3687.50,50.71
3675.00,51.31
3662.50,48.15
3650.00,43.91
3637.50,43.27
3625.00,45.11
3612.50,44.96
3600.00,43.67
3587.50,42.66
3575.00,43.80
3562.50,44.97
3550.00,45.35
3537.50,45.18
3525.00,45.01
3512.50,45.11
3500.00,45.43
3487.50,45.81
3475.00,46.26
3462.50,46.83
3450.00,47.49
3437.50,48.29
3425.00,48.96
3412.50,49.68
3400.00,50.49
3387.50,51.25
3375.00,52.07
3362.50,52.84
3350.00,53.65
3337.50,54.67
3325.00,55.63
3312.50,56.70
3300.00,57.68
3287.50,58.44
3275.00,59.12
3262.50,59.51
3250.00,59.81
3237.50,59.98
3225.00,59.98
3212.50,60.09
3200.00,59.88
3187.50,59.15
3175.00,59.49
3162.50,58.76
3150.00,57.08
3137.50,54.26
3125.00,50.43
3112.50,47.81
3100.00,47.29
3087.50,46.95
3075.00,45.26
3062.50,40.33
3050.00,35.93
3037.50,41.65
3025.00,39.72
3012.50,33.45
3000.00,24.09
2987.50,6.89
2975.00,-0.00
2962.50,0.05
2950.00,0.07
2937.50,6.46
2925.00,14.53
2912.50,6.68
2900.00,4.20
2887.50,20.75
2875.00,33.65
2862.50,41.80
2850.00,44.53
2837.50,46.14
2825.00,48.40
2812.50,47.26
2800.00,48.00
2787.50,54.49
2775.00,67.00
2762.50,73.60
2750.00,76.75
2737.50,78.67
2725.00,79.69
2712.50,79.71
2700.00,80.03
2687.50,80.12
2675.00,77.85
2662.50,75.16
2650.00,78.26
2637.50,82.25
2625.00,84.05
2612.50,84.95
2600.00,85.40
2587.50,85.68
2575.00,85.86
2562.50,85.95
2550.00,85.90
2537.50,85.70
2525.00,84.99
2512.50,83.00
2500.00,74.94
2487.50,81.46
2475.00,84.78
2462.50,85.64
2450.00,85.99
2437.50,86.13
2425.00,86.17
2412.50,86.13
2400.00,86.06
2387.50,85.95
2375.00,85.72
2362.50,85.57
2350.00,85.30
2337.50,84.92
2325.00,84.70
2312.50,84.21
2300.00,83.56
2287.50,82.55
2275.00,81.40
2262.50,80.88
2250.00,80.03
2237.50,78.44
2225.00,75.49
2212.50,70.77
2200.00,61.90
2187.50,45.57
2175.00,25.18
2162.50,16.70
2150.00,24.73
2137.50,45.25
2125.00,61.32
2112.50,68.11
2100.00,70.90
2087.50,71.91
2075.00,71.37
2062.50,69.40
2050.00,67.88
2037.50,73.95
2025.00,74.97
2012.50,71.46
2000.00,68.57
1987.50,67.97
1975.00,62.45
1962.50,54.39
1950.00,47.82
1937.50,49.37
1925.00,57.16
1912.50,61.11
1900.00,64.91
1887.50,65.02
1875.00,64.51
1862.50,64.39
1850.00,63.95
1837.50,64.37
1825.00,63.10
1812.50,60.56
1800.00,57.16
1787.50,54.16
1775.00,53.00
1762.50,53.38
1750.00,53.83
1737.50,53.15
1725.00,51.37
1712.50,50.59
1700.00,49.88
1687.50,48.09
1675.00,46.30
1662.50,43.40
1650.00,40.68
1637.50,38.60
1625.00,36.39
1612.50,34.47
1600.00,31.22
1587.50,36.46
1575.00,40.22
1562.50,42.37
1550.00,42.94
1537.50,42.54
1525.00,42.14
1512.50,42.19
1500.00,41.92
1487.50,37.56
1475.00,34.79
1462.50,25.19
1450.00,12.39
1437.50,14.33
1425.00,9.48
1412.50,0.95
1400.00,2.47
1387.50,15.47
1375.00,22.89
1362.50,26.46
1350.00,27.30
1337.50,26.72
1325.00,22.93
1312.50,16.00
1300.00,8.94
1287.50,2.54
1275.00,0.01
1262.50,0.00
1250.00,0.01
1237.50,0.39
1225.00,0.48
1212.50,0.05
1200.00,0.01
1187.50,0.01
1175.00,0.00
1162.50,0.00
1150.00,0.01
1137.50,0.00
1125.00,0.01
1112.50,0.01
1100.00,0.01
1087.50,0.01
1075.00,0.01
1062.50,0.01
1050.00,0.01
1037.50,0.00
1025.00,0.00
1012.50,0.01
1000.00,0.01
987.50,0.04
975.00,0.81
962.50,2.25
950.00,4.41
937.50,5.65
925.00,2.36
912.50,0.29
900.00,0.30
887.50,0.00
875.00,0.01
862.50,0.01
850.00,0.00
837.50,0.00
825.00,0.01
812.50,0.01
800.00,0.01
787.50,0.01
775.00,0.01
762.50,0.00
750.00,0.13
737.50,1.86
725.00,2.52
712.50,0.75
700.00,0.11
687.50,0.13
675.00,0.97
662.50,0.82
650.00,10.44
637.50,8.94
625.00,7.59
612.50,7.70
600.00,2.47
587.50,3.20
575.00,1.00
562.50,0.61
550.00,0.44
537.50,0.29
525.00,0.15
512.50,0.09
500.00,0.06
487.50,0.13
475.00,0.05
462.50,0.03
450.00,0.10
437.50,0.02
425.00,0.12
412.50,0.18
400.00,0.37