File: CSVs/190606_AuNP_PDMS_1/03_AuPDMS_03min.csv
Created as New Dataset,Sample 160 By irlear Date Thursday, June 06 2019
cm-1,%T
4000.00,79.27
3987.50,79.81
3975.00,80.34
3962.50,80.82
3950.00,81.10
3937.50,81.32
3925.00,81.41
3912.50,81.25
3900.00,80.83
3887.50,80.46
3875.00,80.15
3862.50,79.44
3850.00,77.28
3837.50,74.02
3825.00,72.27
3812.50,71.01
3800.00,68.78
3787.50,64.94
3775.00,60.19
3762.50,57.78
3750.00,58.53
3737.50,60.68
3725.00,57.39
3712.50,52.11
3700.00,48.05
3687.50,50.72
3675.00,51.32
3662.50,48.15
3650.00,43.93
3637.50,43.26
3625.00,45.10
3612.50,44.96
3600.00,43.67
3587.50,42.67
3575.00,43.80
3562.50,44.96
3550.00,45.36
3537.50,45.17
3525.00,45.02
3512.50,45.12
3500.00,45.43
3487.50,45.83
3475.00,46.27
3462.50,46.85
3450.00,47.51
3437.50,48.30
3425.00,49.00
3412.50,49.70
3400.00,50.50
3387.50,51.29
3375.00,52.08
3362.50,52.88
3350.00,53.67
3337.50,54.69
3325.00,55.67
3312.50,56.70
3300.00,57.70
3287.50,58.46
3275.00,59.11
3262.50,59.53
3250.00,59.81
3237.50,60.00
3225.00,59.99
3212.50,60.08
3200.00,59.89
3187.50,59.13
3175.00,59.48
3162.50,58.74
3150.00,57.05
3137.50,54.25
3125.00,50.40
3112.50,47.79
3100.00,47.28
3087.50,46.95
3075.00,45.27
3062.50,40.33
3050.00,35.93
3037.50,41.65
3025.00,39.72
3012.50,33.44
3000.00,24.07
2987.50,6.88
2975.00,-0.01
2962.50,0.05
2950.00,0.06
2937.50,6.44
2925.00,14.49
2912.50,6.66
2900.00,4.18
2887.50,20.72
2875.00,33.63
2862.50,41.80
2850.00,44.52
2837.50,46.12
2825.00,48.39
2812.50,47.23
2800.00,47.98
2787.50,54.47
2775.00,67.01
2762.50,73.63
2750.00,76.77
2737.50,78.71
2725.00,79.72
2712.50,79.74
2700.00,80.07
2687.50,80.15
2675.00,77.88
2662.50,75.17
2650.00,78.28
2637.50,82.29
2625.00,84.08
2612.50,84.99
2600.00,85.44
2587.50,85.72
2575.00,85.90
2562.50,85.98
2550.00,85.95
2537.50,85.74
2525.00,85.02
2512.50,83.03
2500.00,74.94
2487.50,81.47
2475.00,84.81
2462.50,85.67
2450.00,86.03
2437.50,86.16
2425.00,86.21
2412.50,86.16
2400.00,86.09
2387.50,85.99
2375.00,85.75
2362.50,85.61
2350.00,85.33
2337.50,84.94
2325.00,84.73
2312.50,84.24
2300.00,83.59
2287.50,82.57
2275.00,81.42
2262.50,80.90
2250.00,80.05
2237.50,78.46
2225.00,75.51
2212.50,70.77
2200.00,61.89
2187.50,45.54
2175.00,25.14
2162.50,16.67
2150.00,24.69
2137.50,45.21
2125.00,61.30
2112.50,68.10
2100.00,70.91
2087.50,71.90
2075.00,71.37
2062.50,69.39
2050.00,67.85
2037.50,73.96
2025.00,74.97
2012.50,71.46
2000.00,68.55
1987.50,67.95
1975.00,62.43
1962.50,54.35
1950.00,47.77
1937.50,49.31
1925.00,57.12
1912.50,61.09
1900.00,64.88
1887.50,65.01
1875.00,64.49
1862.50,64.35
1850.00,63.95
1837.50,64.34
1825.00,63.08
1812.50,60.52
1800.00,57.12
1787.50,54.12
1775.00,52.95
1762.50,53.33
1750.00,53.78
1737.50,53.10
1725.00,51.33
1712.50,50.53
1700.00,49.85
1687.50,48.05
1675.00,46.26
1662.50,43.37
1650.00,40.64
1637.50,38.56
1625.00,36.35
1612.50,34.42
1600.00,31.17
1587.50,36.41
1575.00,40.19
1562.50,42.33
1550.00,42.89
1537.50,42.49
1525.00,42.10
1512.50,42.15
1500.00,41.87
1487.50,37.52
1475.00,34.73
1462.50,25.13
1450.00,12.32
1437.50,14.27
1425.00,9.44
1412.50,0.93
1400.00,2.44
1387.50,15.42
1375.00,22.85
1362.50,26.41
1350.00,27.25
1337.50,26.68
1325.00,22.89
1312.50,15.97
1300.00,8.92
1287.50,2.53
1275.00,0.01
1262.50,0.00
1250.00,0.00
1237.50,0.39
1225.00,0.47
1212.50,0.04
1200.00,0.00
1187.50,0.01
1175.00,0.01
1162.50,0.01
1150.00,0.01
1137.50,0.00
1125.00,0.00
1112.50,0.01
1100.00,0.01
1087.50,0.00
1075.00,0.01
1062.50,0.00
1050.00,0.01
1037.50,0.02
1025.00,0.01
1012.50,0.01
1000.00,0.01
987.50,0.04
975.00,0.81
962.50,2.24
950.00,4.39
937.50,5.63
925.00,2.35
912.50,0.29
900.00,0.29
887.50,0.01
875.00,0.00
862.50,0.01
850.00,0.01
837.50,0.01
825.00,0.02
812.50,0.02
800.00,0.01
787.50,0.01
775.00,0.01
762.50,0.01
750.00,0.13
737.50,1.87
725.00,2.51
712.50,0.74
700.00,0.12
687.50,0.14
675.00,0.97
662.50,0.84
650.00,10.42
637.50,8.90
625.00,7.54
612.50,7.71
600.00,2.47
587.50,3.16
575.00,1.03
562.50,0.60
550.00,0.42
537.50,0.30
525.00,0.15
512.50,0.16
500.00,0.09
487.50,0.05
475.00,0.07
462.50,0.06
450.00,0.11
437.50,0.18
425.00,0.03
412.50,0.05
400.00,0.11