File: CSVs/190606_AuNP_PDMS_1/05_AuPDMS_05min.csv
Created as New Dataset,Sample 162 By irlear Date Thursday, June 06 2019
cm-1,%T
4000.00,79.32
3987.50,79.87
3975.00,80.40
3962.50,80.89
3950.00,81.16
3937.50,81.38
3925.00,81.49
3912.50,81.30
3900.00,80.88
3887.50,80.51
3875.00,80.20
3862.50,79.50
3850.00,77.33
3837.50,74.06
3825.00,72.30
3812.50,71.03
3800.00,68.81
3787.50,64.94
3775.00,60.16
3762.50,57.75
3750.00,58.48
3737.50,60.68
3725.00,57.37
3712.50,52.08
3700.00,48.03
3687.50,50.72
3675.00,51.33
3662.50,48.15
3650.00,43.87
3637.50,43.23
3625.00,45.07
3612.50,44.93
3600.00,43.64
3587.50,42.62
3575.00,43.78
3562.50,44.93
3550.00,45.32
3537.50,45.15
3525.00,44.97
3512.50,45.09
3500.00,45.40
3487.50,45.79
3475.00,46.27
3462.50,46.81
3450.00,47.51
3437.50,48.29
3425.00,48.99
3412.50,49.72
3400.00,50.49
3387.50,51.30
3375.00,52.07
3362.50,52.86
3350.00,53.68
3337.50,54.66
3325.00,55.67
3312.50,56.69
3300.00,57.68
3287.50,58.46
3275.00,59.09
3262.50,59.53
3250.00,59.80
3237.50,59.96
3225.00,59.99
3212.50,60.04
3200.00,59.87
3187.50,59.11
3175.00,59.44
3162.50,58.73
3150.00,57.00
3137.50,54.21
3125.00,50.35
3112.50,47.73
3100.00,47.26
3087.50,46.93
3075.00,45.27
3062.50,40.33
3050.00,35.91
3037.50,41.65
3025.00,39.70
3012.50,33.41
3000.00,24.04
2987.50,6.84
2975.00,-0.00
2962.50,0.05
2950.00,0.06
2937.50,6.40
2925.00,14.44
2912.50,6.61
2900.00,4.14
2887.50,20.64
2875.00,33.56
2862.50,41.75
2850.00,44.48
2837.50,46.06
2825.00,48.34
2812.50,47.17
2800.00,47.92
2787.50,54.41
2775.00,66.98
2762.50,73.65
2750.00,76.79
2737.50,78.72
2725.00,79.75
2712.50,79.75
2700.00,80.09
2687.50,80.16
2675.00,77.88
2662.50,75.16
2650.00,78.27
2637.50,82.32
2625.00,84.11
2612.50,85.02
2600.00,85.49
2587.50,85.74
2575.00,85.94
2562.50,86.02
2550.00,85.98
2537.50,85.78
2525.00,85.05
2512.50,83.05
2500.00,74.92
2487.50,81.49
2475.00,84.84
2462.50,85.70
2450.00,86.06
2437.50,86.19
2425.00,86.23
2412.50,86.19
2400.00,86.12
2387.50,86.01
2375.00,85.74
2362.50,85.55
2350.00,85.27
2337.50,84.90
2325.00,84.68
2312.50,84.20
2300.00,83.57
2287.50,82.57
2275.00,81.42
2262.50,80.91
2250.00,80.05
2237.50,78.46
2225.00,75.51
2212.50,70.76
2200.00,61.86
2187.50,45.47
2175.00,25.07
2162.50,16.61
2150.00,24.63
2137.50,45.14
2125.00,61.27
2112.50,68.06
2100.00,70.89
2087.50,71.88
2075.00,71.33
2062.50,69.36
2050.00,67.78
2037.50,73.94
2025.00,74.95
2012.50,71.43
2000.00,68.53
1987.50,67.90
1975.00,62.40
1962.50,54.26
1950.00,47.67
1937.50,49.22
1925.00,57.05
1912.50,61.06
1900.00,64.84
1887.50,64.95
1875.00,64.45
1862.50,64.28
1850.00,63.91
1837.50,64.29
1825.00,63.04
1812.50,60.48
1800.00,57.05
1787.50,54.07
1775.00,52.88
1762.50,53.28
1750.00,53.72
1737.50,53.02
1725.00,51.28
1712.50,50.45
1700.00,49.79
1687.50,47.99
1675.00,46.19
1662.50,43.31
1650.00,40.56
1637.50,38.51
1625.00,36.27
1612.50,34.35
1600.00,31.08
1587.50,36.33
1575.00,40.11
1562.50,42.25
1550.00,42.84
1537.50,42.42
1525.00,42.04
1512.50,42.09
1500.00,41.80
1487.50,37.44
1475.00,34.65
1462.50,25.04
1450.00,12.23
1437.50,14.18
1425.00,9.38
1412.50,0.92
1400.00,2.41
1387.50,15.36
1375.00,22.76
1362.50,26.35
1350.00,27.18
1337.50,26.62
1325.00,22.83
1312.50,15.91
1300.00,8.88
1287.50,2.51
1275.00,0.02
1262.50,0.00
1250.00,0.00
1237.50,0.38
1225.00,0.46
1212.50,0.03
1200.00,0.01
1187.50,0.00
1175.00,0.01
1162.50,0.01
1150.00,0.01
1137.50,0.00
1125.00,0.00
1112.50,0.00
1100.00,0.00
1087.50,0.01
1075.00,0.01
1062.50,0.02
1050.00,0.01
1037.50,0.00
1025.00,0.01
1012.50,0.00
1000.00,0.00
987.50,0.02
975.00,0.80
962.50,2.22
950.00,4.38
937.50,5.60
925.00,2.33
912.50,0.29
900.00,0.29
887.50,0.01
875.00,0.01
862.50,0.01
850.00,0.00
837.50,0.01
825.00,0.02
812.50,0.02
800.00,0.01
787.50,0.00
775.00,0.01
762.50,0.00
750.00,0.13
737.50,1.87
725.00,2.51
712.50,0.74
700.00,0.11
687.50,0.14
675.00,0.93
662.50,0.82
650.00,10.37
637.50,8.87
625.00,7.49
612.50,7.66
600.00,2.44
587.50,3.16
575.00,1.02
562.50,0.61
550.00,0.41
537.50,0.34
525.00,0.17
512.50,0.16
500.00,0.06
487.50,0.08
475.00,0.05
462.50,0.06
450.00,0.06
437.50,0.06
425.00,0.02
412.50,0.18
400.00,0.37