File: CSVs/190606_AuNP_PDMS_1/06_AuPDMS_10min.csv
Created as New Dataset,Sample 163 By irlear Date Thursday, June 06 2019
cm-1,%T
4000.00,79.28
3987.50,79.83
3975.00,80.36
3962.50,80.85
3950.00,81.12
3937.50,81.36
3925.00,81.44
3912.50,81.28
3900.00,80.85
3887.50,80.49
3875.00,80.17
3862.50,79.47
3850.00,77.28
3837.50,73.99
3825.00,72.22
3812.50,70.96
3800.00,68.72
3787.50,64.84
3775.00,60.04
3762.50,57.62
3750.00,58.38
3737.50,60.60
3725.00,57.29
3712.50,52.01
3700.00,47.95
3687.50,50.66
3675.00,51.27
3662.50,48.07
3650.00,43.79
3637.50,43.12
3625.00,44.98
3612.50,44.85
3600.00,43.55
3587.50,42.52
3575.00,43.68
3562.50,44.85
3550.00,45.22
3537.50,45.04
3525.00,44.87
3512.50,44.98
3500.00,45.31
3487.50,45.71
3475.00,46.19
3462.50,46.76
3450.00,47.44
3437.50,48.25
3425.00,48.92
3412.50,49.65
3400.00,50.45
3387.50,51.22
3375.00,52.03
3362.50,52.78
3350.00,53.61
3337.50,54.60
3325.00,55.57
3312.50,56.63
3300.00,57.60
3287.50,58.37
3275.00,59.02
3262.50,59.42
3250.00,59.73
3237.50,59.87
3225.00,59.88
3212.50,59.96
3200.00,59.74
3187.50,59.00
3175.00,59.32
3162.50,58.59
3150.00,56.88
3137.50,54.05
3125.00,50.22
3112.50,47.61
3100.00,47.16
3087.50,46.88
3075.00,45.24
3062.50,40.30
3050.00,35.86
3037.50,41.62
3025.00,39.66
3012.50,33.34
3000.00,23.97
2987.50,6.80
2975.00,-0.01
2962.50,0.05
2950.00,0.06
2937.50,6.34
2925.00,14.35
2912.50,6.53
2900.00,4.07
2887.50,20.54
2875.00,33.47
2862.50,41.68
2850.00,44.38
2837.50,45.95
2825.00,48.23
2812.50,47.06
2800.00,47.79
2787.50,54.28
2775.00,66.93
2762.50,73.59
2750.00,76.77
2737.50,78.69
2725.00,79.74
2712.50,79.73
2700.00,80.05
2687.50,80.15
2675.00,77.81
2662.50,75.08
2650.00,78.22
2637.50,82.28
2625.00,84.11
2612.50,85.00
2600.00,85.48
2587.50,85.75
2575.00,85.93
2562.50,86.02
2550.00,85.96
2537.50,85.77
2525.00,85.04
2512.50,83.03
2500.00,74.85
2487.50,81.44
2475.00,84.83
2462.50,85.69
2450.00,86.05
2437.50,86.19
2425.00,86.22
2412.50,86.18
2400.00,86.11
2387.50,86.00
2375.00,85.76
2362.50,85.60
2350.00,85.33
2337.50,84.92
2325.00,84.74
2312.50,84.23
2300.00,83.58
2287.50,82.57
2275.00,81.40
2262.50,80.87
2250.00,80.03
2237.50,78.42
2225.00,75.47
2212.50,70.69
2200.00,61.76
2187.50,45.31
2175.00,24.92
2162.50,16.50
2150.00,24.48
2137.50,44.99
2125.00,61.18
2112.50,68.00
2100.00,70.81
2087.50,71.82
2075.00,71.24
2062.50,69.29
2050.00,67.68
2037.50,73.87
2025.00,74.92
2012.50,71.33
2000.00,68.45
1987.50,67.82
1975.00,62.29
1962.50,54.14
1950.00,47.50
1937.50,49.05
1925.00,56.91
1912.50,60.95
1900.00,64.78
1887.50,64.83
1875.00,64.37
1862.50,64.18
1850.00,63.80
1837.50,64.22
1825.00,62.91
1812.50,60.41
1800.00,56.92
1787.50,53.94
1775.00,52.77
1762.50,53.14
1750.00,53.63
1737.50,52.88
1725.00,51.15
1712.50,50.34
1700.00,49.68
1687.50,47.89
1675.00,46.07
1662.50,43.22
1650.00,40.44
1637.50,38.41
1625.00,36.17
1612.50,34.23
1600.00,30.96
1587.50,36.19
1575.00,39.99
1562.50,42.13
1550.00,42.73
1537.50,42.32
1525.00,41.92
1512.50,41.98
1500.00,41.69
1487.50,37.32
1475.00,34.52
1462.50,24.90
1450.00,12.07
1437.50,14.03
1425.00,9.28
1412.50,0.89
1400.00,2.36
1387.50,15.25
1375.00,22.65
1362.50,26.24
1350.00,27.08
1337.50,26.52
1325.00,22.74
1312.50,15.83
1300.00,8.83
1287.50,2.49
1275.00,0.01
1262.50,0.00
1250.00,0.01
1237.50,0.38
1225.00,0.46
1212.50,0.04
1200.00,0.01
1187.50,0.00
1175.00,0.01
1162.50,0.01
1150.00,0.00
1137.50,0.00
1125.00,0.01
1112.50,0.01
1100.00,0.01
1087.50,0.00
1075.00,0.01
1062.50,0.01
1050.00,0.00
1037.50,0.01
1025.00,0.01
1012.50,0.00
1000.00,0.00
987.50,0.03
975.00,0.80
962.50,2.21
950.00,4.34
937.50,5.58
925.00,2.30
912.50,0.28
900.00,0.29
887.50,0.01
875.00,0.01
862.50,0.00
850.00,0.02
837.50,0.01
825.00,0.01
812.50,0.01
800.00,0.01
787.50,0.01
775.00,0.01
762.50,0.00
750.00,0.11
737.50,1.83
725.00,2.49
712.50,0.72
700.00,0.11
687.50,0.13
675.00,0.93
662.50,0.79
650.00,10.35
637.50,8.78
625.00,7.40
612.50,7.58
600.00,2.44
587.50,3.12
575.00,0.98
562.50,0.61
550.00,0.40
537.50,0.27
525.00,0.15
512.50,0.11
500.00,0.05
487.50,0.07
475.00,0.08
462.50,0.05
450.00,0.07
437.50,0.10
425.00,0.03
412.50,0.05
400.00,0.28